# MODTRAN sorted wavelengths in nanometers
284.941
284.981
285.022
285.063
285.103
285.144
285.185
285.225
285.266
285.307
285.347
285.388
285.429
285.470
285.510
285.551
285.592
285.633
285.673
285.714
285.755
285.796
285.837
285.878
285.919
285.959
286.000
286.041
286.082
286.123
286.164
286.205
286.246
286.287
286.328
286.369
286.410
286.451
286.492
286.533
286.574
286.615
286.656
286.697
286.738
286.779
286.821
286.862
286.903
286.944
286.985
287.026
287.068
287.109
287.150
287.191
287.233
287.274
287.315
287.356
287.398
287.439
287.480
287.522
287.563
287.604
287.646
287.687
287.728
287.770
287.811
287.853
287.894
287.935
287.977
288.018
288.060
288.101
288.143
288.184
288.226
288.268
288.309
288.351
288.392
288.434
288.475
288.517
288.559
288.600
288.642
288.684
288.725
288.767
288.809
288.850
288.892
288.934
288.976
289.017
289.059
289.101
289.143
289.185
289.226
289.268
289.310
289.352
289.394
289.436
289.478
289.519
289.561
289.603
289.645
289.687
289.729
289.771
289.813
289.855
289.897
289.939
289.981
290.023
290.065
290.107
290.149
290.192
290.234
290.276
290.318
290.360
290.402
290.444
290.487
290.529
290.571
290.613
290.655
290.698
290.740
290.782
290.824
290.867
290.909
290.951
290.994
291.036
291.078
291.121
291.163
291.206
291.248
291.290
291.333
291.375
291.418
291.460
291.503
291.545
291.588
291.630
291.673
291.715
291.758
291.800
291.843
291.886
291.928
291.971
292.013
292.056
292.099
292.141
292.184
292.227
292.269
292.312
292.355
292.398
292.440
292.483
292.526
292.569
292.612
292.654
292.697
292.740
292.783
292.826
292.869
292.912
292.954
292.997
293.040
293.083
293.126
293.169
293.212
293.255
293.298
293.341
293.384
293.427
293.470
293.513
293.556
293.600
293.643
293.686
293.729
293.772
293.815
293.858
293.902
293.945
293.988
294.031
294.074
294.118
294.161
294.204
294.247
294.291
294.334
294.377
294.421
294.464
294.507
294.551
294.594
294.638
294.681
294.724
294.768
294.811
294.855
294.898
294.942
294.985
295.029
295.072
295.116
295.159
295.203
295.247
295.290
295.334
295.377
295.421
295.465
295.508
295.552
295.596
295.639
295.683
295.727
295.771
295.814
295.858
295.902
295.946
295.989
296.033
296.077
296.121
296.165
296.209
296.252
296.296
296.340
296.384
296.428
296.472
296.516
296.560
296.604
296.648
296.692
296.736
296.780
296.824
296.868
296.912
296.956
297.000
297.044
297.089
297.133
297.177
297.221
297.265
297.309
297.354
297.398
297.442
297.486
297.530
297.575
297.619
297.663
297.708
297.752
297.796
297.841
297.885
297.929
297.974
298.018
298.063
298.107
298.151
298.196
298.240
298.285
298.329
298.374
298.418
298.463
298.507
298.552
298.597
298.641
298.686
298.730
298.775
298.820
298.864
298.909
298.954
298.998
299.043
299.088
299.133
299.177
299.222
299.267
299.312
299.356
299.401
299.446
299.491
299.536
299.581
299.625
299.670
299.715
299.760
299.805
299.850
299.895
299.940
299.985
300.030
300.075
300.120
300.165
300.210
300.255
300.300
300.345
300.391
300.436
300.481
300.526
300.571
300.616
300.661
300.707
300.752
300.797
300.842
300.888
300.933
300.978
301.023
301.069
301.114
301.159
301.205
301.250
301.296
301.341
301.386
301.432
301.477
301.523
301.568
301.614
301.659
301.705
301.750
301.796
301.841
301.887
301.932
301.978
302.024
302.069
302.115
302.160
302.206
302.252
302.297
302.343
302.389
302.435
302.480
302.526
302.572
302.618
302.663
302.709
302.755
302.801
302.847
302.893
302.938
302.984
303.030
303.076
303.122
303.168
303.214
303.260
303.306
303.352
303.398
303.444
303.490
303.536
303.582
303.628
303.674
303.721
303.767
303.813
303.859
303.905
303.951
303.998
304.044
304.090
304.136
304.182
304.229
304.275
304.321
304.368
304.414
304.460
304.507
304.553
304.599
304.646
304.692
304.739
304.785
304.832
304.878
304.925
304.971
305.018
305.064
305.111
305.157
305.204
305.250
305.297
305.344
305.390
305.437
305.483
305.530
305.577
305.623
305.670
305.717
305.764
305.810
305.857
305.904
305.951
305.998
306.044
306.091
306.138
306.185
306.232
306.279
306.326
306.373
306.419
306.466
306.513
306.560
306.607
306.654
306.701
306.748
306.796
306.843
306.890
306.937
306.984
307.031
307.078
307.125
307.172
307.220
307.267
307.314
307.361
307.409
307.456
307.503
307.550
307.598
307.645
307.692
307.740
307.787
307.834
307.882
307.929
307.977
308.024
308.071
308.119
308.166
308.214
308.261
308.309
308.356
308.404
308.452
308.499
308.547
308.594
308.642
308.690
308.737
308.785
308.833
308.880
308.928
308.976
309.023
309.071
309.119
309.167
309.215
309.262
309.310
309.358
309.406
309.454
309.502
309.550
309.598
309.645
309.693
309.741
309.789
309.837
309.885
309.933
309.981
310.029
310.078
310.126
310.174
310.222
310.270
310.318
310.366
310.414
310.463
310.511
310.559
310.607
310.655
310.704
310.752
310.800
310.849
310.897
310.945
310.994
311.042
311.090
311.139
311.187
311.236
311.284
311.332
311.381
311.429
311.478
311.526
311.575
311.624
311.672
311.721
311.769
311.818
311.867
311.915
311.964
312.012
312.061
312.110
312.159
312.207
312.256
312.305
312.354
312.402
312.451
312.500
312.549
312.598
312.647
312.695
312.744
312.793
312.842
312.891
312.940
312.989
313.038
313.087
313.136
313.185
313.234
313.283
313.332
313.381
313.430
313.480
313.529
313.578
313.627
313.676
313.725
313.775
313.824
313.873
313.922
313.972
314.021
314.070
314.120
314.169
314.218
314.268
314.317
314.367
314.416
314.465
314.515
314.564
314.614
314.663
314.713
314.762
314.812
314.861
314.911
314.961
315.010
315.060
315.109
315.159
315.209
315.259
315.308
315.358
315.408
315.457
315.507
315.557
315.607
315.657
315.706
315.756
315.806
315.856
315.906
315.956
316.006
316.056
316.106
316.156
316.206
316.256
316.306
316.356
316.406
316.456
316.506
316.556
316.606
316.656
316.706
316.756
316.807
316.857
316.907
316.957
317.007
317.058
317.108
317.158
317.209
317.259
317.309
317.360
317.410
317.460
317.511
317.561
317.612
317.662
317.712
317.763
317.813
317.864
317.914
317.965
318.016
318.066
318.117
318.167
318.218
318.269
318.319
318.370
318.421
318.471
318.522
318.573
318.624
318.674
318.725
318.776
318.827
318.878
318.928
318.979
319.030
319.081
319.132
319.183
319.234
319.285
319.336
319.387
319.438
319.489
319.540
319.591
319.642
319.693
319.744
319.795
319.846
319.898
319.949
320.000
320.051
320.102
320.154
320.205
320.256
320.307
320.359
320.410
320.461
320.513
320.564
320.616
320.667
320.718
320.770
320.821
320.873
320.924
320.976
321.027
321.079
321.130
321.182
321.234
321.285
321.337
321.388
321.440
321.492
321.543
321.595
321.647
321.699
321.750
321.802
321.854
321.906
321.957
322.009
322.061
322.113
322.165
322.217
322.269
322.321
322.373
322.425
322.477
322.529
322.581
322.633
322.685
322.737
322.789
322.841
322.893
322.945
322.997
323.050
323.102
323.154
323.206
323.258
323.311
323.363
323.415
323.468
323.520
323.572
323.625
323.677
323.729
323.782
323.834
323.887
323.939
323.992
324.044
324.097
324.149
324.202
324.254
324.307
324.359
324.412
324.465
324.517
324.570
324.623
324.675
324.728
324.781
324.834
324.886
324.939
324.992
325.045
325.098
325.150
325.203
325.256
325.309
325.362
325.415
325.468
325.521
325.574
325.627
325.680
325.733
325.786
325.839
325.892
325.945
325.998
326.052
326.105
326.158
326.211
326.264
326.318
326.371
326.424
326.477
326.531
326.584
326.637
326.691
326.744
326.797
326.851
326.904
326.958
327.011
327.065
327.118
327.172
327.225
327.279
327.332
327.386
327.439
327.493
327.547
327.600
327.654
327.708
327.761
327.815
327.869
327.923
327.976
328.030
328.084
328.138
328.192
328.246
328.299
328.353
328.407
328.461
328.515
328.569
328.623
328.677
328.731
328.785
328.839
328.893
328.947
329.001
329.056
329.110
329.164
329.218
329.272
329.327
329.381
329.435
329.489
329.544
329.598
329.652
329.707
329.761
329.815
329.870
329.924
329.979
330.033
330.087
330.142
330.196
330.251
330.306
330.360
330.415
330.469
330.524
330.578
330.633
330.688
330.743
330.797
330.852
330.907
330.961
331.016
331.071
331.126
331.181
331.236
331.290
331.345
331.400
331.455
331.510
331.565
331.620
331.675
331.730
331.785
331.840
331.895
331.950
332.005
332.060
332.116
332.171
332.226
332.281
332.336
332.392
332.447
332.502
332.557
332.613
332.668
332.723
332.779
332.834
332.889
332.945
333.000
333.056
333.111
333.167
333.222
333.278
333.333
333.389
333.444
333.500
333.556
333.611
333.667
333.723
333.778
333.834
333.890
333.946
334.001
334.057
334.113
334.169
334.225
334.280
334.336
334.392
334.448
334.504
334.560
334.616
334.672
334.728
334.784
334.840
334.896
334.952
335.008
335.065
335.121
335.177
335.233
335.289
335.345
335.402
335.458
335.514
335.570
335.627
335.683
335.739
335.796
335.852
335.909
335.965
336.022
336.078
336.134
336.191
336.247
336.304
336.361
336.417
336.474
336.530
336.587
336.644
336.700
336.757
336.814
336.870
336.927
336.984
337.041
337.098
337.154
337.211
337.268
337.325
337.382
337.439
337.496
337.553
337.610
337.667
337.724
337.781
337.838
337.895
337.952
338.009
338.066
338.123
338.181
338.238
338.295
338.352
338.409
338.467
338.524
338.581
338.639
338.696
338.753
338.811
338.868
338.926
338.983
339.041
339.098
339.155
339.213
339.271
339.328
339.386
339.443
339.501
339.559
339.616
339.674
339.732
339.789
339.847
339.905
339.963
340.020
340.078
340.136
340.194
340.252
340.310
340.368
340.426
340.483
340.541
340.599
340.657
340.715
340.774
340.832
340.890
340.948
341.006
341.064
341.122
341.180
341.239
341.297
341.355
341.413
341.472
341.530
341.588
341.647
341.705
341.763
341.822
341.880
341.939
341.997
342.056
342.114
342.173
342.231
342.290
342.349
342.407
342.466
342.524
342.583
342.642
342.700
342.759
342.818
342.877
342.936
342.994
343.053
343.112
343.171
343.230
343.289
343.348
343.407
343.466
343.525
343.584
343.643
343.702
343.761
343.820
343.879
343.938
343.997
344.056
344.116
344.175
344.234
344.293
344.353
344.412
344.471
344.531
344.590
344.649
344.709
344.768
344.828
344.887
344.947
345.006
345.066
345.125
345.185
345.244
345.304
345.363
345.423
345.483
345.542
345.602
345.662
345.722
345.781
345.841
345.901
345.961
346.021
346.081
346.141
346.200
346.260
346.320
346.380
346.440
346.500
346.560
346.620
346.681
346.741
346.801
346.861
346.921
346.981
347.041
347.102
347.162
347.222
347.283
347.343
347.403
347.464
347.524
347.584
347.645
347.705
347.766
347.826
347.887
347.947
348.008
348.068
348.129
348.189
348.250
348.311
348.371
348.432
348.493
348.553
348.614
348.675
348.736
348.797
348.857
348.918
348.979
349.040
349.101
349.162
349.223
349.284
349.345
349.406
349.467
349.528
349.589
349.650
349.711
349.773
349.834
349.895
349.956
350.017
350.079
350.140
350.201
350.263
350.324
350.385
350.447
350.508
350.570
350.631
350.693
350.754
350.816
350.877
350.939
351.000
351.062
351.124
351.185
351.247
351.309
351.370
351.432
351.494
351.556
351.617
351.679
351.741
351.803
351.865
351.927
351.989
352.051
352.113
352.175
352.237
352.299
352.361
352.423
352.485
352.547
352.609
352.671
352.734
352.796
352.858
352.920
352.983
353.045
353.107
353.170
353.232
353.294
353.357
353.419
353.482
353.544
353.607
353.669
353.732
353.794
353.857
353.920
353.982
354.045
354.108
354.170
354.233
354.296
354.359
354.421
354.484
354.547
354.610
354.673
354.736
354.799
354.862
354.925
354.988
355.051
355.114
355.177
355.240
355.303
355.366
355.429
355.492
355.556
355.619
355.682
355.745
355.809
355.872
355.935
355.999
356.062
356.125
356.189
356.252
356.316
356.379
356.443
356.506
356.570
356.633
356.697
356.761
356.824
356.888
356.952
357.015
357.079
357.143
357.207
357.270
357.334
357.398
357.462
357.526
357.590
357.654
357.718
357.782
357.846
357.910
357.974
358.038
358.102
358.166
358.230
358.295
358.359
358.423
358.487
358.551
358.616
358.680
358.744
358.809
358.873
358.938
359.002
359.066
359.131
359.195
359.260
359.324
359.389
359.454
359.518
359.583
359.648
359.712
359.777
359.842
359.906
359.971
360.036
360.101
360.166
360.231
360.295
360.360
360.425
360.490
360.555
360.620
360.685
360.750
360.815
360.881
360.946
361.011
361.076
361.141
361.206
361.272
361.337
361.402
361.468
361.533
361.598
361.664
361.729
361.794
361.860
361.925
361.991
362.056
362.122
362.188
362.253
362.319
362.384
362.450
362.516
362.582
362.647
362.713
362.779
362.845
362.911
362.976
363.042
363.108
363.174
363.240
363.306
363.372
363.438
363.504
363.570
363.636
363.703
363.769
363.835
363.901
363.967
364.033
364.100
364.166
364.232
364.299
364.365
364.431
364.498
364.564
364.631
364.697
364.764
364.830
364.897
364.964
365.030
365.097
365.163
365.230
365.297
365.364
365.430
365.497
365.564
365.631
365.698
365.764
365.831
365.898
365.965
366.032
366.099
366.166
366.233
366.300
366.367
366.435
366.502
366.569
366.636
366.703
366.771
366.838
366.905
366.972
367.040
367.107
367.175
367.242
367.309
367.377
367.444
367.512
367.579
367.647
367.715
367.782
367.850
367.918
367.985
368.053
368.121
368.189
368.256
368.324
368.392
368.460
368.528
368.596
368.664
368.732
368.800
368.868
368.936
369.004
369.072
369.140
369.208
369.276
369.344
369.413
369.481
369.549
369.617
369.686
369.754
369.822
369.891
369.959
370.028
370.096
370.165
370.233
370.302
370.370
370.439
370.508
370.576
370.645
370.714
370.782
370.851
370.920
370.989
371.057
371.126
371.195
371.264
371.333
371.402
371.471
371.540
371.609
371.678
371.747
371.816
371.885
371.955
372.024
372.093
372.162
372.232
372.301
372.370
372.439
372.509
372.578
372.648
372.717
372.787
372.856
372.926
372.995
373.065
373.134
373.204
373.274
373.343
373.413
373.483
373.552
373.622
373.692
373.762
373.832
373.902
373.972
374.042
374.111
374.181
374.251
374.322
374.392
374.462
374.532
374.602
374.672
374.742
374.813
374.883
374.953
375.023
375.094
375.164
375.235
375.305
375.375
375.446
375.516
375.587
375.657
375.728
375.799
375.869
375.940
376.011
376.081
376.152
376.223
376.294
376.364
376.435
376.506
376.577
376.648
376.719
376.790
376.861
376.932
377.003
377.074
377.145
377.216
377.287
377.358
377.430
377.501
377.572
377.643
377.715
377.786
377.858
377.929
378.000
378.072
378.143
378.215
378.286
378.358
378.430
378.501
378.573
378.644
378.716
378.788
378.860
378.931
379.003
379.075
379.147
379.219
379.291
379.363
379.435
379.507
379.579
379.651
379.723
379.795
379.867
379.939
380.011
380.084
380.156
380.228
380.300
380.373
380.445
380.518
380.590
380.662
380.735
380.807
380.880
380.952
381.025
381.098
381.170
381.243
381.316
381.388
381.461
381.534
381.607
381.679
381.752
381.825
381.898
381.971
382.044
382.117
382.190
382.263
382.336
382.409
382.482
382.555
382.629
382.702
382.775
382.848
382.922
382.995
383.068
383.142
383.215
383.289
383.362
383.436
383.509
383.583
383.656
383.730
383.803
383.877
383.951
384.025
384.098
384.172
384.246
384.320
384.394
384.467
384.541
384.615
384.689
384.763
384.837
384.911
384.986
385.060
385.134
385.208
385.282
385.356
385.431
385.505
385.579
385.654
385.728
385.802
385.877
385.951
386.026
386.100
386.175
386.250
386.324
386.399
386.473
386.548
386.623
386.698
386.772
386.847
386.922
386.997
387.072
387.147
387.222
387.297
387.372
387.447
387.522
387.597
387.672
387.747
387.822
387.898
387.973
388.048
388.123
388.199
388.274
388.350
388.425
388.500
388.576
388.651
388.727
388.802
388.878
388.954
389.029
389.105
389.181
389.257
389.332
389.408
389.484
389.560
389.636
389.712
389.788
389.864
389.940
390.016
390.092
390.168
390.244
390.320
390.396
390.472
390.549
390.625
390.701
390.778
390.854
390.930
391.007
391.083
391.160
391.236
391.313
391.389
391.466
391.543
391.619
391.696
391.773
391.850
391.926
392.003
392.080
392.157
392.234
392.311
392.388
392.465
392.542
392.619
392.696
392.773
392.850
392.927
393.005
393.082
393.159
393.236
393.314
393.391
393.468
393.546
393.623
393.701
393.778
393.856
393.933
394.011
394.089
394.166
394.244
394.322
394.400
394.477
394.555
394.633
394.711
394.789
394.867
394.945
395.023
395.101
395.179
395.257
395.335
395.413
395.491
395.570
395.648
395.726
395.804
395.883
395.961
396.040
396.118
396.197
396.275
396.354
396.432
396.511
396.589
396.668
396.747
396.825
396.904
396.983
397.062
397.141
397.219
397.298
397.377
397.456
397.535
397.614
397.693
397.772
397.852
397.931
398.010
398.089
398.168
398.248
398.327
398.406
398.486
398.565
398.645
398.724
398.804
398.883
398.963
399.042
399.122
399.202
399.281
399.361
399.441
399.521
399.600
399.680
399.760
399.840
399.920
400.000
400.080
400.160
400.240
400.320
400.400
400.481
400.561
400.641
400.721
400.802
400.882
400.962
401.043
401.123
401.204
401.284
401.365
401.445
401.526
401.606
401.687
401.768
401.848
401.929
402.010
402.091
402.172
402.253
402.334
402.414
402.495
402.576
402.658
402.739
402.820
402.901
402.982
403.063
403.145
403.226
403.307
403.388
403.470
403.551
403.633
403.714
403.796
403.877
403.959
404.040
404.122
404.204
404.285
404.367
404.449
404.531
404.613
404.694
404.776
404.858
404.940
405.022
405.104
405.186
405.268
405.351
405.433
405.515
405.597
405.680
405.762
405.844
405.927
406.009
406.091
406.174
406.256
406.339
406.421
406.504
406.587
406.669
406.752
406.835
406.918
407.000
407.083
407.166
407.249
407.332
407.415
407.498
407.581
407.664
407.747
407.830
407.914
407.997
408.080
408.163
408.247
408.330
408.413
408.497
408.580
408.664
408.747
408.831
408.914
408.998
409.082
409.165
409.249
409.333
409.417
409.500
409.584
409.668
409.752
409.836
409.920
410.004
410.088
410.172
410.256
410.341
410.425
410.509
410.593
410.678
410.762
410.846
410.931
411.015
411.100
411.184
411.269
411.353
411.438
411.523
411.607
411.692
411.777
411.862
411.946
412.031
412.116
412.201
412.286
412.371
412.456
412.541
412.626
412.711
412.797
412.882
412.967
413.052
413.138
413.223
413.309
413.394
413.479
413.565
413.650
413.736
413.822
413.907
413.993
414.079
414.164
414.250
414.336
414.422
414.508
414.594
414.680
414.766
414.852
414.938
415.024
415.110
415.196
415.282
415.369
415.455
415.541
415.628
415.714
415.800
415.887
415.973
416.060
416.146
416.233
416.320
416.406
416.493
416.580
416.667
416.754
416.840
416.927
417.014
417.101
417.188
417.275
417.362
417.449
417.537
417.624
417.711
417.798
417.885
417.973
418.060
418.148
418.235
418.323
418.410
418.498
418.585
418.673
418.760
418.848
418.936
419.024
419.111
419.199
419.287
419.375
419.463
419.551
419.639
419.727
419.815
419.903
419.992
420.080
420.168
420.256
420.345
420.433
420.521
420.610
420.698
420.787
420.875
420.964
421.053
421.141
421.230
421.319
421.408
421.496
421.585
421.674
421.763
421.852
421.941
422.030
422.119
422.208
422.297
422.387
422.476
422.565
422.654
422.744
422.833
422.922
423.012
423.101
423.191
423.280
423.370
423.460
423.549
423.639
423.729
423.819
423.908
423.998
424.088
424.178
424.268
424.358
424.448
424.538
424.628
424.719
424.809
424.899
424.989
425.080
425.170
425.260
425.351
425.441
425.532
425.622
425.713
425.804
425.894
425.985
426.076
426.167
426.257
426.348
426.439
426.530
426.621
426.712
426.803
426.894
426.985
427.077
427.168
427.259
427.350
427.442
427.533
427.625
427.716
427.807
427.899
427.991
428.082
428.174
428.266
428.357
428.449
428.541
428.633
428.725
428.816
428.908
429.000
429.092
429.185
429.277
429.369
429.461
429.553
429.646
429.738
429.830
429.923
430.015
430.108
430.200
430.293
430.385
430.478
430.571
430.663
430.756
430.849
430.942
431.034
431.127
431.220
431.313
431.406
431.499
431.593
431.686
431.779
431.872
431.965
432.059
432.152
432.246
432.339
432.432
432.526
432.620
432.713
432.807
432.900
432.994
433.088
433.182
433.276
433.369
433.463
433.557
433.651
433.745
433.839
433.934
434.028
434.122
434.216
434.311
434.405
434.499
434.594
434.688
434.783
434.877
434.972
435.066
435.161
435.256
435.350
435.445
435.540
435.635
435.730
435.825
435.920
436.015
436.110
436.205
436.300
436.395
436.491
436.586
436.681
436.777
436.872
436.967
437.063
437.158
437.254
437.350
437.445
437.541
437.637
437.733
437.828
437.924
438.020
438.116
438.212
438.308
438.404
438.500
438.596
438.693
438.789
438.885
438.982
439.078
439.174
439.271
439.367
439.464
439.560
439.657
439.754
439.850
439.947
440.044
440.141
440.238
440.335
440.432
440.529
440.626
440.723
440.820
440.917
441.014
441.112
441.209
441.306
441.404
441.501
441.599
441.696
441.794
441.891
